Start Time:  08-Mar-17 23:49:20           Time Completed:  08-Mar-17 23:55:53       Elapsed Time:  00:06:48
Sample ID:     170308, MOGV Co-Ni 53,30mg, T-run 1-2

Experiment:    C:\IDEASVSM\InduCat\Experiments\hys_c_300(1)_03s_master06\hys_c_300(1)_03s_master06.exp
Data File:     C:\IDEASVSM\InduCat\170308, MOGV Co-Ni 53,30mg, T-run 1-2 (ProfileData)\170308, MOGV Co-Ni 53,30mg, T-run 1-2#129.txt
Plot File:     C:\IDEASVSM\InduCat\170308, MOGV Co-Ni 53,30mg, T-run 1-2 (ProfileData)\170308, MOGV Co-Ni 53,30mg, T-run 1-2#129.oc2
VSM Exp File:  C:\IDEASVSM\InduCat\Experiments\hys_c_300(1)_03s_master06\hys_c_300(1)_03s_master06.stp
VSM Data File: C:\IDEASVSM\InduCat\170308, MOGV Co-Ni 53,30mg, T-run 1-2 (ProfileData)\170308, MOGV Co-Ni 53,30mg, T-run 1-2#129.dat

***DATA***

Field(G)	 Moment(emu)	 Temperature(C)	
 299.555 	 0.604109 	 550.006 	
 298.486 	 0.603288 	 550.001 	
 297.454 	 0.602258 	 550.003 	
 296.519 	 0.601159 	 550.005 	
 295.453 	 0.600065 	 550.005 	
 294.492 	 0.599009 	 550.013 	
 293.574 	 0.597917 	 550.004 	
 292.498 	 0.596727 	 550.004 	
 291.371 	 0.595485 	 550.007 	
 290.531 	 0.594433 	 550.008 	
 289.447 	 0.593171 	 550.012 	
 288.48 	 0.592049 	 550.008 	
 287.408 	 0.590879 	 550.009 	
 286.526 	 0.589662 	 550.014 	
 285.484 	 0.588486 	 550.013 	
 284.552 	 0.587189 	 550.01 	
 283.457 	 0.586039 	 550.009 	
 282.549 	 0.58492 	 550.01 	
 281.535 	 0.583743 	 550.009 	
 280.51 	 0.582476 	 550.007 	
 279.551 	 0.581248 	 550.01 	
 278.441 	 0.580048 	 550.011 	
 277.52 	 0.578737 	 550.012 	
 276.569 	 0.577587 	 550.006 	
 275.463 	 0.576367 	 550.008 	
 274.617 	 0.575149 	 550.007 	
 273.397 	 0.573834 	 550.013 	
 272.524 	 0.572549 	 550.013 	
 271.52 	 0.571353 	 550.009 	
 270.484 	 0.570087 	 550.007 	
 269.554 	 0.568877 	 550.006 	
 268.491 	 0.56762 	 550.007 	
 267.563 	 0.566375 	 550.009 	
 266.467 	 0.565007 	 550.012 	
 265.469 	 0.563752 	 550.011 	
 264.526 	 0.562573 	 550.01 	
 263.933 	 0.561713 	 550.013 	
 262.686 	 0.56028 	 550.017 	
 261.554 	 0.558716 	 550.016 	
 260.553 	 0.557428 	 550.015 	
 259.605 	 0.5562 	 550.015 	
 258.517 	 0.554699 	 550.014 	
 257.57 	 0.553556 	 550.013 	
 256.547 	 0.55222 	 550.012 	
 255.464 	 0.550908 	 550.014 	
 254.608 	 0.549619 	 550.012 	
 253.552 	 0.548349 	 550.017 	
 252.523 	 0.547043 	 550.02 	
 251.514 	 0.545665 	 550.021 	
 250.567 	 0.544416 	 550.019 	
 249.528 	 0.543193 	 550.017 	
 248.668 	 0.541905 	 550.014 	
 247.507 	 0.540548 	 550.013 	
 246.575 	 0.539173 	 550.014 	
 245.482 	 0.537932 	 550.018 	
 244.584 	 0.536648 	 550.018 	
 243.602 	 0.535366 	 550.018 	
 242.452 	 0.53394 	 550.013 	
 241.63 	 0.53262 	 550.015 	
 240.47 	 0.53125 	 550.018 	
 239.609 	 0.529969 	 550.018 	
 238.587 	 0.528709 	 550.015 	
 237.567 	 0.527262 	 550.019 	
 236.564 	 0.526001 	 550.022 	
 235.624 	 0.524645 	 550.016 	
 234.428 	 0.523279 	 550.021 	
 233.669 	 0.52195 	 550.021 	
 232.519 	 0.520661 	 550.025 	
 231.585 	 0.519347 	 550.023 	
 230.589 	 0.51797 	 550.021 	
 229.633 	 0.516614 	 550.02 	
 228.549 	 0.515247 	 550.021 	
 227.895 	 0.514182 	 550.021 	
 226.776 	 0.512845 	 550.022 	
 225.529 	 0.511203 	 550.021 	
 224.615 	 0.509744 	 550.022 	
 223.613 	 0.508441 	 550.019 	
 222.488 	 0.507044 	 550.02 	
 221.582 	 0.505664 	 550.025 	
 220.678 	 0.504295 	 550.025 	
 219.589 	 0.502973 	 550.021 	
 218.642 	 0.501516 	 550.02 	
 217.684 	 0.500151 	 550.017 	
 216.598 	 0.498687 	 550.02 	
 215.646 	 0.497346 	 550.02 	
 214.646 	 0.495986 	 550.021 	
 213.727 	 0.494536 	 550.027 	
 212.526 	 0.49307 	 550.027 	
 211.743 	 0.491739 	 550.027 	
 210.516 	 0.490217 	 550.026 	
 209.511 	 0.488776 	 550.02 	
 208.815 	 0.487648 	 550.02 	
 207.722 	 0.485977 	 550.028 	
 206.594 	 0.484349 	 550.022 	
 205.523 	 0.48297 	 550.022 	
 204.638 	 0.481818 	 550.021 	
 203.643 	 0.480467 	 550.023 	
 202.662 	 0.478844 	 550.022 	
 201.647 	 0.477612 	 550.021 	
 200.652 	 0.476194 	 550.02 	
 199.695 	 0.474633 	 550.02 	
 198.662 	 0.473194 	 550.02 	
 197.713 	 0.471751 	 550.026 	
 196.486 	 0.470345 	 550.016 	
 195.728 	 0.468824 	 550.017 	
 194.523 	 0.467436 	 550.02 	
 193.752 	 0.465879 	 550.02 	
 192.716 	 0.464509 	 550.02 	
 191.667 	 0.463342 	 550.02 	
 191.17 	 0.462117 	 550.018 	
 190 	 0.460069 	 550.021 	
 188.533 	 0.458673 	 550.019 	
 187.689 	 0.45708 	 550.017 	
 186.713 	 0.455724 	 550.015 	
 185.64 	 0.454114 	 550.017 	
 184.625 	 0.452729 	 550.019 	
 183.764 	 0.451255 	 550.016 	
 182.583 	 0.449888 	 550.015 	
 181.717 	 0.448307 	 550.009 	
 180.654 	 0.446841 	 550.01 	
 179.834 	 0.445462 	 550.016 	
 178.797 	 0.443882 	 550.017 	
 177.508 	 0.442306 	 550.018 	
 176.566 	 0.440817 	 550.016 	
 175.687 	 0.439705 	 550.016 	
 174.894 	 0.438271 	 550.012 	
 173.876 	 0.436414 	 550.014 	
 172.424 	 0.434399 	 550.014 	
 171.686 	 0.433245 	 550.022 	
 170.762 	 0.431596 	 550.016 	
 169.746 	 0.430156 	 550.017 	
 168.79 	 0.428561 	 550.017 	
 167.63 	 0.427068 	 550.017 	
 166.71 	 0.425508 	 550.022 	
 165.742 	 0.424071 	 550.019 	
 164.766 	 0.422595 	 550.019 	
 163.811 	 0.42075 	 550.017 	
 162.629 	 0.419408 	 550.015 	
 162.085 	 0.41782 	 550.016 	
 160.962 	 0.416151 	 550.016 	
 159.998 	 0.414569 	 550.016 	
 158.641 	 0.41304 	 550.015 	
 157.533 	 0.411503 	 550.016 	
 156.658 	 0.40988 	 550.017 	
 155.721 	 0.40839 	 550.022 	
 154.738 	 0.406884 	 550.021 	
 154.057 	 0.405723 	 550.018 	
 152.94 	 0.403858 	 550.016 	
 151.733 	 0.40201 	 550.015 	
 150.751 	 0.40043 	 550.013 	
 149.703 	 0.398732 	 550.016 	
 148.851 	 0.397143 	 550.014 	
 147.565 	 0.395526 	 550.01 	
 146.971 	 0.393986 	 550.008 	
 145.676 	 0.392042 	 550.008 	
 144.829 	 0.39047 	 550.007 	
 143.714 	 0.388851 	 550.013 	
 142.664 	 0.387307 	 550.011 	
 141.929 	 0.385798 	 550.009 	
 140.576 	 0.383995 	 550.007 	
 139.953 	 0.382601 	 550.006 	
 138.681 	 0.380907 	 550.009 	
 137.734 	 0.379238 	 550.01 	
 136.733 	 0.377643 	 550.008 	
 135.743 	 0.37605 	 550.01 	
 134.667 	 0.374475 	 550.01 	
 133.742 	 0.372788 	 550.011 	
 132.805 	 0.370974 	 550.009 	
 131.817 	 0.369441 	 550.01 	
 130.694 	 0.367727 	 550.006 	
 129.877 	 0.366077 	 550.009 	
 128.769 	 0.364451 	 550.007 	
 127.754 	 0.362744 	 550.006 	
 126.832 	 0.361026 	 550.006 	
 125.674 	 0.359276 	 550.005 	
 124.793 	 0.357649 	 550.008 	
 123.743 	 0.355998 	 550.008 	
 122.796 	 0.354225 	 550.006 	
 121.773 	 0.35249 	 550.006 	
 120.805 	 0.350763 	 550.008 	
 119.809 	 0.349128 	 550.013 	
 118.784 	 0.347424 	 550.013 	
 117.999 	 0.346127 	 550.012 	
 117.077 	 0.344347 	 550.013 	
 115.766 	 0.342222 	 550.012 	
 114.831 	 0.340528 	 550.011 	
 113.882 	 0.338818 	 550.013 	
 112.765 	 0.336862 	 550.014 	
 111.783 	 0.33523 	 550.013 	
 110.765 	 0.333519 	 550.013 	
 109.828 	 0.331823 	 550.014 	
 108.807 	 0.32997 	 550.017 	
 107.819 	 0.328333 	 550.016 	
 106.804 	 0.326423 	 550.014 	
 105.738 	 0.324697 	 550.012 	
 104.789 	 0.322839 	 550.017 	
 103.804 	 0.321223 	 550.022 	
 102.822 	 0.319497 	 550.022 	
 101.9 	 0.31762 	 550.023 	
 100.834 	 0.315829 	 550.022 	
 99.8012 	 0.313946 	 550.019 	
 98.867 	 0.312205 	 550.021 	
 97.8401 	 0.310304 	 550.022 	
 96.7981 	 0.308431 	 550.018 	
 95.7951 	 0.306646 	 550.016 	
 94.8849 	 0.304872 	 550.022 	
 93.8011 	 0.303102 	 550.026 	
 92.8849 	 0.301158 	 550.025 	
 91.825 	 0.299352 	 550.025 	
 90.792 	 0.297431 	 550.02 	
 89.8818 	 0.295712 	 550.018 	
 88.9237 	 0.293879 	 550.017 	
 87.807 	 0.291918 	 550.015 	
 86.8548 	 0.28995 	 550.02 	
 85.8728 	 0.28812 	 550.022 	
 84.8398 	 0.286176 	 550.023 	
 83.8308 	 0.284435 	 550.023 	
 82.8697 	 0.282618 	 550.022 	
 81.8847 	 0.280676 	 550.022 	
 80.9655 	 0.27913 	 550.024 	
 80.217 	 0.277457 	 550.023 	
 78.8337 	 0.274933 	 550.024 	
 77.8667 	 0.273055 	 550.026 	
 76.9115 	 0.271104 	 550.026 	
 75.8816 	 0.269178 	 550.015 	
 74.9355 	 0.267263 	 550.015 	
 73.7618 	 0.265307 	 550.015 	
 72.9534 	 0.263327 	 550.019 	
 71.8576 	 0.261476 	 550.018 	
 70.8665 	 0.259573 	 550.018 	
 69.8336 	 0.257536 	 550.023 	
 68.9084 	 0.255583 	 550.021 	
 67.9294 	 0.253749 	 550.018 	
 66.8695 	 0.251736 	 550.02 	
 65.8994 	 0.249728 	 550.018 	
 64.9053 	 0.248001 	 550.016 	
 63.8844 	 0.245987 	 550.017 	
 62.8963 	 0.243897 	 550.015 	
 61.8754 	 0.242022 	 550.015 	
 60.9622 	 0.239971 	 550.021 	
 59.9232 	 0.237942 	 550.024 	
 58.9022 	 0.235852 	 550.023 	
 57.9022 	 0.233899 	 550.021 	
 56.9262 	 0.231888 	 550.022 	
 55.8543 	 0.229782 	 550.023 	
 54.9411 	 0.227797 	 550.026 	
 53.9381 	 0.225725 	 550.026 	
 52.9351 	 0.223631 	 550.022 	
 51.9081 	 0.221681 	 550.021 	
 50.9141 	 0.219602 	 550.022 	
 49.8751 	 0.21762 	 550.019 	
 48.9949 	 0.215639 	 550.02 	
 47.8811 	 0.213354 	 550.023 	
 46.8721 	 0.211373 	 550.022 	
 46.0427 	 0.209374 	 550.022 	
 45.0697 	 0.207656 	 550.026 	
 44.2553 	 0.205654 	 550.029 	
 42.8301 	 0.203021 	 550.027 	
 41.9858 	 0.200948 	 550.023 	
 40.9738 	 0.198766 	 550.021 	
 39.8869 	 0.19657 	 550.024 	
 39.0037 	 0.194586 	 550.023 	
 37.9198 	 0.192441 	 550.027 	
 36.9767 	 0.190291 	 550.024 	
 35.9497 	 0.188191 	 550.025 	
 34.9707 	 0.186026 	 550.018 	
 33.9437 	 0.183791 	 550.025 	
 32.8928 	 0.18164 	 550.023 	
 31.9317 	 0.179588 	 550.024 	
 31.0365 	 0.177564 	 550.026 	
 29.9586 	 0.175267 	 550.028 	
 28.9287 	 0.173176 	 550.032 	
 28.0035 	 0.170902 	 550.031 	
 26.9735 	 0.168562 	 550.022 	
 25.9406 	 0.166403 	 550.021 	
 24.9585 	 0.164166 	 550.014 	
 23.8986 	 0.162042 	 550.025 	
 23.0423 	 0.159788 	 550.024 	
 21.9645 	 0.157528 	 550.027 	
 20.9704 	 0.155459 	 550.026 	
 19.9375 	 0.153246 	 550.025 	
 18.9704 	 0.151062 	 550.018 	
 17.9973 	 0.148762 	 550.019 	
 16.9614 	 0.146513 	 550.023 	
 15.9374 	 0.144217 	 550.025 	
 14.9673 	 0.141943 	 550.016 	
 14.0452 	 0.139791 	 550.019 	
 12.9344 	 0.137213 	 550.017 	
 11.9793 	 0.134926 	 550.022 	
 10.9583 	 0.132765 	 550.022 	
 9.9912 	 0.130537 	 550.022 	
 9.0301 	 0.128052 	 550.02 	
 7.95823 	 0.12586 	 550.021 	
 7.29055 	 0.124259 	 550.018 	
 6.16478 	 0.121684 	 550.012 	
 5.05997 	 0.118843 	 550.014 	
 3.9881 	 0.116575 	 550.018 	
 2.97011 	 0.114263 	 550.018 	
 2.04195 	 0.111837 	 550.018 	
 0.997024 	 0.109524 	 550.024 	
 0.00890429 	 0.107168 	 550.022 	
-1.06978 	 0.104738 	 550.016 	
-2.03168 	 0.102296 	 550.018 	
-2.9786 	 0.0999772 	 550.017 	
-3.98245 	 0.0974958 	 550.023 	
-5.00728 	 0.0950348 	 550.023 	
-5.98716 	 0.0925335 	 550.019 	
-7.006 	 0.0902755 	 550.019 	
-7.86302 	 0.0880534 	 550.022 	
-9.02869 	 0.0856787 	 550.016 	
-10.0146 	 0.0831794 	 550.013 	
-10.9405 	 0.0808278 	 550.015 	
-11.9204 	 0.0783236 	 550.015 	
-12.9722 	 0.0758522 	 550.01 	
-13.9641 	 0.0734628 	 550.018 	
-14.9679 	 0.0711418 	 550.016 	
-15.9178 	 0.0687382 	 550.02 	
-16.9636 	 0.0662127 	 550.02 	
-18.0274 	 0.0637628 	 550.019 	
-18.9204 	 0.0613762 	 550.021 	
-19.8943 	 0.0589733 	 550.02 	
-20.9731 	 0.0564213 	 550.018 	
-21.9379 	 0.0541063 	 550.024 	
-22.8909 	 0.0515855 	 550.023 	
-24.0056 	 0.0490252 	 550.025 	
-24.8926 	 0.046576 	 550.026 	
-25.9564 	 0.044075 	 550.021 	
-27.0112 	 0.0417079 	 550.025 	
-27.9521 	 0.0391985 	 550.025 	
-28.6533 	 0.0373142 	 550.024 	
-29.5702 	 0.0351492 	 550.025 	
-30.9247 	 0.0318802 	 550.024 	
-32.0394 	 0.0291082 	 550.023 	
-32.9564 	 0.0267922 	 550.023 	
-33.9422 	 0.0243602 	 550.022 	
-34.9371 	 0.0219247 	 550.024 	
-35.8331 	 0.0193442 	 550.024 	
-37.0137 	 0.0168143 	 550.02 	
-37.8618 	 0.0144002 	 550.019 	
-39.0095 	 0.0118532 	 550.02 	
-39.9744 	 0.00934607 	 550.018 	
-40.9003 	 0.00679218 	 550.023 	
-41.9281 	 0.00440858 	 550.024 	
-42.944 	 0.00184236 	 550.024 	
-43.9238 	-0.000733771 	 550.022 	
-44.9756 	-0.00307719 	 550.019 	
-45.9136 	-0.00558715 	 550.018 	
-46.9204 	-0.00801935 	 550.019 	
-47.9153 	-0.0106284 	 550.019 	
-48.9311 	-0.0130796 	 550.022 	
-49.8721 	-0.0155324 	 550.022 	
-50.9628 	-0.0180872 	 550.024 	
-51.9007 	-0.0204854 	 550.022 	
-52.8866 	-0.0230417 	 550.021 	
-53.9204 	-0.0255898 	 550.017 	
-54.8973 	-0.0281364 	 550.016 	
-55.8592 	-0.0305847 	 550.014 	
-56.8691 	-0.0330946 	 550.017 	
-57.9358 	-0.0357235 	 550.017 	
-58.9337 	-0.0382017 	 550.016 	
-59.8327 	-0.0406227 	 550.015 	
-60.9564 	-0.0432119 	 550.015 	
-61.8464 	-0.0455353 	 550.021 	
-62.8143 	-0.0480303 	 550.02 	
-63.905 	-0.0506576 	 550.021 	
-64.768 	-0.0529369 	 550.017 	
-65.5471 	-0.0548697 	 550.016 	
-66.7847 	-0.0581041 	 550.01 	
-67.9474 	-0.0607356 	 550.009 	
-68.8254 	-0.0632411 	 550.01 	
-69.8952 	-0.0657114 	 550.012 	
-70.8691 	-0.0682386 	 550.013 	
-71.8699 	-0.0707362 	 550.01 	
-72.8198 	-0.0732944 	 550.013 	
-73.8716 	-0.0759 	 550.012 	
-74.8545 	-0.0784493 	 550.008 	
-75.8764 	-0.0808927 	 550.008 	
-76.8532 	-0.0836808 	 550.014 	
-77.8451 	-0.0861029 	 550.013 	
-78.843 	-0.0886484 	 550.013 	
-79.8528 	-0.0911673 	 550.017 	
-80.7997 	-0.0937251 	 550.016 	
-81.8545 	-0.096096 	 550.015 	
-82.8734 	-0.0986142 	 550.012 	
-83.8113 	-0.101193 	 550.009 	
-84.905 	-0.103718 	 550.01 	
-85.807 	-0.10616 	 550.008 	
-86.8858 	-0.108795 	 550.008 	
-87.9016 	-0.111365 	 550.009 	
-88.8545 	-0.113779 	 550.01 	
-89.8973 	-0.116263 	 550.009 	
-90.8263 	-0.118723 	 550.01 	
-91.8511 	-0.12123 	 550.008 	
-92.816 	-0.123791 	 550.01 	
-93.8139 	-0.126253 	 550.011 	
-94.8237 	-0.1289 	 550.013 	
-95.8156 	-0.131467 	 550.014 	
-96.7925 	-0.133878 	 550.02 	
-97.8892 	-0.136448 	 550.018 	
-98.7732 	-0.138849 	 550.018 	
-99.819 	-0.141537 	 550.017 	
-100.874 	-0.144162 	 550.017 	
-101.767 	-0.146542 	 550.017 	
-102.492 	-0.148365 	 550.015 	
-103.583 	-0.15119 	 550.015 	
-104.841 	-0.154274 	 550.015 	
-105.788 	-0.156685 	 550.014 	
-106.846 	-0.159324 	 550.014 	
-107.778 	-0.161824 	 550.015 	
-108.731 	-0.164438 	 550.019 	
-109.792 	-0.166903 	 550.018 	
-110.81 	-0.169436 	 550.012 	
-111.808 	-0.171842 	 550.012 	
-112.848 	-0.174422 	 550.018 	
-113.801 	-0.176942 	 550.013 	
-114.739 	-0.179424 	 550.014 	
-115.755 	-0.182046 	 550.022 	
-116.819 	-0.184521 	 550.022 	
-117.843 	-0.187231 	 550.016 	
-118.799 	-0.189604 	 550.017 	
-119.776 	-0.192111 	 550.017 	
-120.777 	-0.194698 	 550.017 	
-121.85 	-0.197145 	 550.018 	
-122.752 	-0.1997 	 550.018 	
-123.831 	-0.20223 	 550.016 	
-124.685 	-0.204649 	 550.016 	
-125.76 	-0.207133 	 550.015 	
-126.716 	-0.209558 	 550.017 	
-127.78 	-0.212258 	 550.018 	
-128.778 	-0.214767 	 550.019 	
-129.797 	-0.21734 	 550.019 	
-130.75 	-0.219693 	 550.018 	
-131.742 	-0.222148 	 550.017 	
-132.772 	-0.224797 	 550.016 	
-133.782 	-0.227175 	 550.018 	
-134.693 	-0.229717 	 550.018 	
-135.814 	-0.23227 	 550.023 	
-136.734 	-0.2346 	 550.022 	
-137.759 	-0.237106 	 550.023 	
-138.565 	-0.239259 	 550.023 	
-139.389 	-0.24133 	 550.023 	
-140.767 	-0.244744 	 550.019 	
-141.639 	-0.24699 	 550.02 	
-142.847 	-0.24968 	 550.018 	
-143.749 	-0.252213 	 550.016 	
-144.654 	-0.254584 	 550.019 	
-145.736 	-0.257139 	 550.016 	
-146.76 	-0.259501 	 550.021 	
-147.728 	-0.261949 	 550.021 	
-148.774 	-0.264494 	 550.023 	
-149.727 	-0.266943 	 550.023 	
-150.659 	-0.269416 	 550.022 	
-151.771 	-0.271834 	 550.023 	
-152.84 	-0.274339 	 550.024 	
-153.715 	-0.276695 	 550.022 	
-154.683 	-0.279102 	 550.023 	
-155.684 	-0.281593 	 550.022 	
-156.808 	-0.284074 	 550.02 	
-157.701 	-0.286538 	 550.019 	
-158.711 	-0.289018 	 550.019 	
-159.79 	-0.291391 	 550.019 	
-160.784 	-0.293883 	 550.025 	
-161.686 	-0.296199 	 550.021 	
-162.693 	-0.298675 	 550.02 	
-163.727 	-0.301143 	 550.019 	
-164.614 	-0.303467 	 550.019 	
-165.72 	-0.306009 	 550.016 	
-166.673 	-0.308428 	 550.017 	
-167.742 	-0.310882 	 550.017 	
-168.752 	-0.313358 	 550.016 	
-169.639 	-0.315603 	 550.015 	
-170.772 	-0.31809 	 550.016 	
-171.698 	-0.320468 	 550.018 	
-172.708 	-0.322948 	 550.022 	
-173.718 	-0.325238 	 550.015 	
-174.605 	-0.327312 	 550.017 	
-175.399 	-0.329252 	 550.019 	
-176.591 	-0.332196 	 550.014 	
-177.667 	-0.334806 	 550.014 	
-178.686 	-0.33723 	 550.013 	
-179.687 	-0.339734 	 550.013 	
-180.649 	-0.342035 	 550.013 	
-181.718 	-0.344549 	 550.009 	
-182.659 	-0.346926 	 550.013 	
-183.636 	-0.349351 	 550.009 	
-184.763 	-0.351645 	 550.009 	
-185.623 	-0.353862 	 550.009 	
-186.69 	-0.356258 	 550.009 	
-187.679 	-0.35857 	 550.009 	
-188.605 	-0.360815 	 550.011 	
-189.644 	-0.363197 	 550.019 	
-190.657 	-0.36562 	 550.017 	
-191.619 	-0.368092 	 550.022 	
-192.722 	-0.370334 	 550.018 	
-193.582 	-0.372571 	 550.017 	
-194.682 	-0.374837 	 550.018 	
-195.689 	-0.377139 	 550.019 	
-196.653 	-0.379558 	 550.015 	
-197.648 	-0.381879 	 550.017 	
-198.664 	-0.384298 	 550.015 	
-199.674 	-0.386633 	 550.015 	
-200.633 	-0.388791 	 550.015 	
-201.58 	-0.391029 	 550.017 	
-202.686 	-0.393547 	 550.016 	
-203.689 	-0.395807 	 550.016 	
-204.639 	-0.398034 	 550.013 	
-205.61 	-0.400374 	 550.012 	
-206.665 	-0.402679 	 550.013 	
-207.627 	-0.404835 	 550.014 	
-208.679 	-0.407146 	 550.015 	
-209.596 	-0.409475 	 550.009 	
-210.402 	-0.411343 	 550.015 	
-211.439 	-0.4132 	 550.013 	
-212.49 	-0.416027 	 550.006 	
-213.509 	-0.418501 	 550.008 	
-214.657 	-0.420843 	 550.005 	
-215.613 	-0.423026 	 550.011 	
-216.632 	-0.425303 	 550.012 	
-217.6 	-0.427536 	 550.008 	
-218.615 	-0.429765 	 550.01 	
-219.658 	-0.43222 	 550.013 	
-220.608 	-0.434404 	 550.009 	
-221.597 	-0.436596 	 550.011 	
-222.628 	-0.438787 	 550.013 	
-223.668 	-0.441019 	 550.01 	
-224.576 	-0.443306 	 550.009 	
-225.591 	-0.445516 	 550.008 	
-226.472 	-0.447684 	 550.008 	
-227.692 	-0.450115 	 550.008 	
-228.591 	-0.452267 	 550.007 	
-229.544 	-0.45437 	 550.006 	
-230.635 	-0.456816 	 550.007 	
-231.561 	-0.45894 	 550.008 	
-232.549 	-0.461099 	 550.009 	
-233.643 	-0.463231 	 550.007 	
-234.485 	-0.465428 	 550.007 	
-235.63 	-0.467695 	 550.013 	
-236.598 	-0.469846 	 550.008 	
-237.596 	-0.471914 	 550.006 	
-238.636 	-0.474086 	 550.002 	
-239.502 	-0.476205 	 550 	
-240.55 	-0.478356 	 550.008 	
-241.599 	-0.480574 	 550.008 	
-242.582 	-0.482736 	 550.01 	
-243.541 	-0.484892 	 550.008 	
-244.539 	-0.486995 	 550.007 	
-245.591 	-0.489101 	 550.01 	
-246.621 	-0.491306 	 550.011 	
-247.484 	-0.493327 	 550.01 	
-248.38 	-0.494949 	 550.014 	
-249.234 	-0.496937 	 550.012 	
-250.595 	-0.499799 	 550.009 	
-251.521 	-0.501944 	 550.007 	
-252.555 	-0.503939 	 550.007 	
-253.493 	-0.506117 	 550.014 	
-254.655 	-0.508366 	 550.011 	
-255.524 	-0.510331 	 550.01 	
-256.513 	-0.512426 	 550.015 	
-257.58 	-0.51469 	 550.012 	
-258.515 	-0.516761 	 550.012 	
-259.534 	-0.518802 	 550.01 	
-260.508 	-0.520831 	 550.01 	
-261.565 	-0.523015 	 550.011 	
-262.56 	-0.525163 	 550.012 	
-263.546 	-0.527238 	 550.012 	
-264.469 	-0.529168 	 550.02 	
-265.566 	-0.531337 	 550.021 	
-266.534 	-0.533481 	 550.014 	
-267.49 	-0.535355 	 550.019 	
-268.577 	-0.537473 	 550.017 	
-269.5 	-0.539485 	 550.014 	
-270.483 	-0.541433 	 550.014 	
-271.52 	-0.543394 	 550.018 	
-272.503 	-0.545552 	 550.014 	
-273.495 	-0.547613 	 550.015 	
-274.541 	-0.549698 	 550.018 	
-275.517 	-0.551661 	 550.018 	
-276.506 	-0.553778 	 550.013 	
-277.444 	-0.555645 	 550.015 	
-278.457 	-0.557853 	 550.015 	
-279.602 	-0.559931 	 550.012 	
-280.513 	-0.561867 	 550.013 	
-281.571 	-0.563844 	 550.011 	
